      Lepidocrocite
      Goldsztaub M
      Bulletin de la Societe Francaise de Mineralogie 58 (1935) 6-6
      Etude de quelques derives de l'oxyde ferrique (Fe O.OH, FeO2Na, FeOCl)
      determination de leurs structures.
      _cod_database_code 1011088
      _database_code_amcsd 0017984

      CELL PARAMETERS:   3.8700 12.4000  3.0600   90.000   90.000   90.000
      SPACE GROUP: Amam      
      X-RAY WAVELENGTH:     1.541838
      Cell Volume:    146.843
      Density (g/cm3):      3.973
      MAX. ABS. INTENSITY / VOLUME**2:      66.95031875    
      RIR:      5.487
      RIR based on corundum from Acta Crystallographica A38 (1982) 733-739
               2-THETA      INTENSITY    D-SPACING   H   K   L   Multiplicity
                14.29        100.00        6.2000    0   2   0         2
                27.16         35.66        3.2829    1   2   0         4
                30.08          2.45        2.9709    0   1   1         4
                36.54         41.32        2.4594    0   3   1         4
                37.16          6.09        2.4195    1   4   0         4
                38.19         15.52        2.3566    1   1   1         8
                43.60         11.15        2.0757    1   3   1         8
                43.80          2.53        2.0667    0   6   0         2
                46.96         15.10        1.9350    2   0   0         2
                47.17         25.01        1.9267    0   5   1         4
                49.34          6.66        1.8471    2   2   0         4
                50.03          4.38        1.8230    1   6   0         4
                53.10          2.71        1.7248    1   5   1         8
                59.65          5.59        1.5500    0   8   0         2
                60.51          5.81        1.5300    0   0   2         2
                60.92         13.85        1.5207    2   3   1         8
                62.53          2.85        1.4854    0   2   2         4
                65.49          4.46        1.4253    1   7   1         8
                66.16          1.26        1.4125    2   6   0         4
                67.55          3.75        1.3868    1   2   2         8
                68.76         11.97        1.3653    2   5   1         8
                73.19          1.92        1.2931    1   4   2         8
                75.24          1.27        1.2630    3   2   0         4
                76.88          1.16        1.2400    0  10   0         2
                79.18          3.81        1.2097    2   8   0         4
                79.93          4.03        1.2002    2   0   2         4
                80.36          1.36        1.1949    1   9   1         8
                81.31          1.62        1.1833    3   1   1         8
                81.73          2.20        1.1783    2   2   2         8
                82.27          1.63        1.1719    1   6   2         8
================================================================================
       XPOW Copyright 1993 Bob Downs, Ranjini Swaminathan and Kurt Bartelmehs
  For reference, see Downs et al. (1993) American Mineralogist 78, 1104-1107.
