      Tobermorite
      Merlino S, Bonaccorsi E, Armbruster T
      American Mineralogist 84 (1999) 1613-1621
      Tobermorites: Their real structure and order-disorder (OD) character
      Sample: 11 Angstrom
      _database_code_amcsd 0002330

      CELL PARAMETERS:   6.7350  7.3850 22.4870   90.000   90.000  123.250
      SPACE GROUP: Bm        
      X-RAY WAVELENGTH:     1.541838
      Cell Volume:    935.351
      Density (g/cm3):      2.491
      MAX. ABS. INTENSITY / VOLUME**2:      13.28035108    
      RIR:      1.736
      RIR based on corundum from Acta Crystallographica A38 (1982) 733-739
               2-THETA      INTENSITY    D-SPACING   H   K   L   Multiplicity
                 7.86        100.00       11.2435    0   0   2         2
                14.34          1.74        6.1760    0   1   0         1
                14.87          4.56        5.9557    1  -1   1         2
                15.76          2.73        5.6217    0   0   4         2
                16.22         20.53        5.4636    1   0   1         2
                16.38          7.00        5.4131    0   1   2         2
                18.62          4.77        4.7666    1  -1   3         2
                23.74          3.15        3.7478    0   0   6         2
                24.43          2.54        3.6437   -1   2   1         2
                24.48          3.79        3.6356    1  -1   5         2
                25.34         18.22        3.5145    1   0   5         2
                26.63          2.70        3.3472   -2   1   0         1
                26.92          3.72        3.3124   -1   2   3         2
                26.93          3.06        3.3106    1   1   1         2
                27.81          1.88        3.2080    2  -1   2         2
                27.84          9.63        3.2040    0   1   6         2
                28.91         24.95        3.0881   -2   2   0         1
                28.91         24.51        3.0880    0   2   0         1
                29.22          2.48        3.0562    1   1   3         2
                30.01         24.14        2.9778    2  -2   2         2
                30.01         24.31        2.9777    0   2   2         2
                31.10          1.36        2.8760    2  -1   4         2
                31.34          2.07        2.8538   -1   2   5         2
                31.39          7.53        2.8500    1  -1   7         2
                31.77         18.11        2.8162    2   0   0         1
                31.84          6.05        2.8109    0   0   8         2
                32.08         25.56        2.7905    1   0   7         2
                32.78          4.73        2.7318    2   0   2         2
                33.10          1.97        2.7066    2  -2   4         2
                33.10          1.97        2.7066    0   2   4         2
                33.37          1.09        2.6851    1   1   5         2
                35.08          2.00        2.5584    0   1   8         2
                35.66          8.77        2.5179    2   0   4         2
                35.97          1.81        2.4965    2  -1   6         2
                37.09          8.34        2.4236   -1   2   7         2
                38.86          1.48        2.3177    1   1   7         2
                39.45          8.45        2.2839    1   0   9         2
                40.10         11.10        2.2487    0   0  10         2
                40.48          1.08        2.2283    3  -2   1         2
                40.48          1.11        2.2282    1   2   1         2
                42.11          4.09        2.1456    3  -2   3         2
                42.12          4.05        2.1455    1   2   3         2
                43.54          3.34        2.0787    2  -2   8         2
                43.54          3.33        2.0787    0   2   8         2
                43.75          4.66        2.0693   -1   2   9         2
                45.24          8.01        2.0046    3  -2   5         2
                45.24          8.00        2.0045    1   2   5         2
                49.36         13.62        1.8463   -2   4   0         1
                49.63          7.59        1.8370    3  -2   7         2
                49.63          7.51        1.8370    1   2   7         2
                50.07          2.60        1.8219   -2   4   2         2
                50.19          2.46        1.8178    2  -2  10         2
                50.19          2.44        1.8178    0   2  10         2
                50.59          1.45        1.8044    0   3   6         2
                52.84          1.51        1.7327   -1   3   9         2
                52.84          2.31        1.7326    3   0   5         2
                54.86          4.75        1.6736   -4   2   0         1
                54.86          4.71        1.6735    2   2   0         1
                55.07          4.02        1.6676    3  -2   9         2
                55.07          4.00        1.6675    1   2   9         2
                55.58          3.05        1.6535    1   0  13         2
                56.80          7.32        1.6209    3   0   7         2
                57.37          1.56        1.6062    0   0  14         2
                58.05          1.35        1.5889    3  -3   9         2
                59.94          1.93        1.5431   -2   4   8         2
                60.09          2.89        1.5398   -3   4   7         2
                60.09          2.91        1.5397   -1   4   7         2
                61.02          1.27        1.5184    0   3  10         2
                61.81          1.18        1.5009    3   0   9         2
                64.95          1.36        1.4358   -3   4   9         2
                64.95          1.34        1.4358   -1   4   9         2
                65.40          2.18        1.4269   -2   4  10         2
                66.39          2.85        1.4081    4   0   0         1
                66.98          3.01        1.3972    4   0   2         2
                67.42          1.18        1.3890   -1   2  15         2
                68.55          2.65        1.3689    3  -2  13         2
                68.55          2.60        1.3689    1   2  13         2
                68.83          1.43        1.3640   -2   5   6         2
                70.70          1.05        1.3325   -3   5   7         2
                74.12          2.03        1.2792    2  -2  16         2
                74.12          2.02        1.2792    0   2  16         2
                75.62          2.38        1.2575    2   0  16         2
                76.46          2.08        1.2457    3  -2  15         2
                76.46          2.07        1.2457    1   2  15         2
                78.53          1.99        1.2181    5  -4   7         2
                78.53          1.97        1.2181    1   4   7         2
                79.01          1.02        1.2118   -2   4  14         2
                82.31          1.60        1.1715    3   0  15         2
                87.57          1.13        1.1141    2   4   2         2
================================================================================
       XPOW Copyright 1993 Bob Downs, Ranjini Swaminathan and Kurt Bartelmehs
  For reference, see Downs et al. (1993) American Mineralogist 78, 1104-1107.
