      Gallium
      Wyckoff R W G
      Crystal Structures 1 (1963) 7-83
      Second edition. Interscience Publishers, New York, New York
      _database_code_amcsd 0011240

      CELL PARAMETERS:   4.5107  4.5167  7.6448   90.000   90.000   90.000
      SPACE GROUP: Bmab      
      X-RAY WAVELENGTH:     1.541838
      Cell Volume:    155.751
      Density (g/cm3):      5.946
      MAX. ABS. INTENSITY / VOLUME**2:      93.42465943    
      RIR:      5.116
      RIR based on corundum from Acta Crystallographica A38 (1982) 733-739
               2-THETA      INTENSITY    D-SPACING   H   K   L   Multiplicity
                23.27         22.24        3.8224    0   0   2         2
                30.35        100.00        2.9453    1   1   1         8
                30.64         37.70        2.9178    0   1   2         4
                39.92         13.72        2.2583    0   2   0         2
                39.98         44.91        2.2554    2   0   0         2
                45.55         87.36        1.9914    1   1   3         8
                46.51         52.81        1.9524    1   2   1         8
                46.72          1.95        1.9443    0   2   2         4
                46.77          6.40        1.9424    2   0   2         4
                47.58         15.68        1.9112    0   0   4         2
                51.19         16.58        1.7844    2   1   2         8
                51.95          3.63        1.7601    0   1   4         4
                57.77          8.52        1.5958    2   2   0         4
                58.30          2.63        1.5827    1   2   3         8
                63.13          1.44        1.4726    2   2   2         8
                63.80          3.61        1.4589    0   2   4         4
                63.84         11.82        1.4581    2   0   4         4
                66.70          8.79        1.4024    3   1   1         8
                66.78         14.98        1.4008    0   3   2         4
                67.50          3.00        1.3876    2   1   4         8
                74.47          4.38        1.2741    0   0   6         2
                76.53         15.61        1.2448    3   1   3         8
                77.24          9.78        1.2351    3   2   1         8
                78.00          3.68        1.2250    2   2   4         8
                78.46         13.82        1.2190    1   2   5         8
                80.76         16.05        1.1900    2   3   2         8
                81.36          3.60        1.1827    0   3   4         4
                86.26          3.78        1.1277    4   0   0         2
                88.01          1.62        1.1097    0   2   6         4
                88.04          5.31        1.1093    2   0   6         4
================================================================================
       XPOW Copyright 1993 Bob Downs, Ranjini Swaminathan and Kurt Bartelmehs
  For reference, see Downs et al. (1993) American Mineralogist 78, 1104-1107.
