      Bi2 O3
      Sillen L
      Arkiv for Kemi, Mineralogi och Geologi A12 (1938) 1-15
      X-Ray Studies on Bismuth Trioxide
      _cod_database_code 1010312
      _database_code_amcsd 0017238

      CELL PARAMETERS:  10.9300 10.9300  5.6200   90.000   90.000   90.000
      SPACE GROUP: C-42b     
      X-RAY WAVELENGTH:     1.541838
      Cell Volume:    671.393
      Density (g/cm3):      9.218
      MAX. ABS. INTENSITY / VOLUME**2:      690.1686568    
      RIR:     24.378
      RIR based on corundum from Acta Crystallographica A38 (1982) 733-739
               2-THETA      INTENSITY    D-SPACING   H   K   L   Multiplicity
                25.78          1.69        3.4564    3   1   0         8
                28.02        100.00        3.1842    2   2   1         4
                30.36          3.24        2.9441    3   1   1         8
                31.85         14.06        2.8100    0   0   2         2
                32.77         24.11        2.7325    4   0   0         4
                41.41          1.77        2.1804    3   1   2         8
                45.28          1.01        2.0028    5   1   1         8
                46.35         27.63        1.9590    4   0   2         8
                47.03         12.12        1.9322    4   4   0         4
                48.57          1.95        1.8745    5   3   0         8
                51.39          2.47        1.7782    5   3   1         8
                54.43         13.75        1.6857    2   2   3         4
                55.64         21.65        1.6518    6   2   1         8
                57.92          8.01        1.5921    4   4   2         4
                59.26          1.15        1.5594    5   3   2         8
                62.30          1.28        1.4904    7   1   1         8
                66.56          2.12        1.4050    0   0   4         2
                68.70          2.69        1.3663    8   0   0         4
                74.73          7.72        1.2702    6   2   3         8
                75.76          3.13        1.2556    6   6   1         4
                76.19          3.41        1.2495    4   0   4         8
                76.93          1.20        1.2393    7   5   1         8
                77.72          2.49        1.2287    8   0   2         8
                78.23          2.26        1.2220    8   4   0         8
                83.50          1.14        1.1577    7   5   2         8
                85.44          3.08        1.1363    4   4   4         4
                86.93          4.51        1.1206    8   4   2         8
================================================================================
       XPOW Copyright 1993 Bob Downs, Ranjini Swaminathan and Kurt Bartelmehs
  For reference, see Downs et al. (1993) American Mineralogist 78, 1104-1107.
