      B Fe2
      Bjurstroem T
      Arkiv for Kemi, Mineralogi och Geologi A11 (1933) 1-12
      Roentgenanalyse der Systeme Eisen-Bor, Kobalt-Bor und Nickel-Bor
      _cod_database_code 1010474
      _database_code_amcsd 0017390

      CELL PARAMETERS:   5.0990  5.0990  4.2400   90.000   90.000   90.000
      SPACE GROUP: I-42m     
      X-RAY WAVELENGTH:     1.541838
      Cell Volume:    110.239
      Density (g/cm3):      7.380
      MAX. ABS. INTENSITY / VOLUME**2:      161.4719922    
      RIR:      7.124
      RIR based on corundum from Acta Crystallographica A38 (1982) 733-739
               2-THETA      INTENSITY    D-SPACING   H   K   L   Multiplicity
                24.69          7.39        3.6055    1   1   0         4
                35.20         18.24        2.5495    2   0   0         4
                42.65         23.47        2.1200    0   0   2         2
                45.15        100.00        2.0083    2   1   1         8
                49.90          6.10        1.8275    1   1   2         4
                50.63          3.00        1.8028    2   2   0         4
                56.45         13.16        1.6301    2   0   2         8
                57.12         12.37        1.6124    3   1   0         8
                73.84          5.97        1.2834    3   1   2         8
                74.42          1.42        1.2747    4   0   0         4
                79.80          5.28        1.2018    3   3   0         4
                79.84         13.51        1.2013    2   1   3         8
                80.98         13.09        1.1872    4   1   1         8
                89.77          2.66        1.0925    4   0   2         8
================================================================================
       XPOW Copyright 1993 Bob Downs, Ranjini Swaminathan and Kurt Bartelmehs
  For reference, see Downs et al. (1993) American Mineralogist 78, 1104-1107.
