      Moschelite
      Huggins M, Magill P
      Journal of the American Chemical Society 49 (1927) 2357-2367
      The crystal stuctures of mercuric and mercurous iodides
      _cod_database_code 1011075
      _database_code_amcsd 0017973

      CELL PARAMETERS:   4.9200  4.9200 11.6400   90.000   90.000   90.000
      SPACE GROUP: I-4m2     
      X-RAY WAVELENGTH:     1.541838
      Cell Volume:    281.763
      Density (g/cm3):      7.719
      MAX. ABS. INTENSITY / VOLUME**2:      413.8175441    
      RIR:     17.456
      RIR based on corundum from Acta Crystallographica A38 (1982) 733-739
               2-THETA      INTENSITY    D-SPACING   H   K   L   Multiplicity
                19.59         17.88        4.5318    1   0   1         4
                25.61        100.00        3.4790    1   1   0         4
                30.72         26.81        2.9100    0   0   4         2
                36.53         38.24        2.4600    2   0   0         4
                40.41         49.25        2.2321    1   1   4         8
                41.78          5.38        2.1620    2   1   1         8
                42.98         11.64        2.1043    1   0   5         4
                48.45         28.13        1.8787    2   0   4         4
                52.62         12.44        1.7395    2   2   0         4
                56.68          1.06        1.6240    3   0   1         4
                57.65          9.18        1.5991    2   1   5         8
                59.41         16.62        1.5558    3   1   0         8
                62.17         12.37        1.4931    2   2   4         8
                63.99          1.78        1.4550    0   0   8         2
                68.37         17.97        1.3720    3   1   4         8
                69.34          1.10        1.3553    3   2   1         8
                70.10          5.26        1.3423    1   1   8         8
                70.20          2.38        1.3407    3   0   5         4
                75.99          4.05        1.2523    2   0   8         4
                76.10          4.18        1.2508    1   0   9         4
                77.62          3.43        1.2300    4   0   0         4
                81.82          2.97        1.1772    3   2   5         8
                83.33          2.79        1.1597    3   3   0         4
                85.76          4.48        1.1330    4   0   4         4
                87.38          2.72        1.1160    2   2   8         8
                87.49          5.62        1.1150    2   1   9         8
                88.97          4.70        1.1001    4   2   0         8
================================================================================
       XPOW Copyright 1993 Bob Downs, Ranjini Swaminathan and Kurt Bartelmehs
  For reference, see Downs et al. (1993) American Mineralogist 78, 1104-1107.
