      Cl3 H4 Hg N
      Harmsen E
      Zeitschrift fur Kristallographie 100 (1938) 208-211
      The crystal structure of N H4 Hg Cl3
      _cod_database_code 1010013
      _database_code_amcsd 0016946

      CELL PARAMETERS:   4.1900  4.1900  7.9400   90.000   90.000   90.000
      SPACE GROUP: P-4       
      X-RAY WAVELENGTH:     1.541838
      Cell Volume:    139.395
      Density (g/cm3):      3.823
      MAX. ABS. INTENSITY / VOLUME**2:      133.0962695    
      RIR:     11.337
      RIR based on corundum from Acta Crystallographica A38 (1982) 733-739
               2-THETA      INTENSITY    D-SPACING   H   K   L   Multiplicity
                11.14        100.00        7.9400    0   0   1         2
                21.20         58.63        4.1900    1   0   0         4
                22.39         18.38        3.9700    0   0   2         2
                24.01         42.38        3.7057    1   0   1         4
                30.16         51.41        2.9628    1   1   0         4
                31.03          6.86        2.8819    1   0   2         4
                32.25         33.25        2.7758    1   1   1         4
                33.87         13.46        2.6467    0   0   3         2
                37.89         18.61        2.3744    1   1   2         4
                40.31         22.91        2.2376    1   0   3         4
                43.18         17.39        2.0950    2   0   0         4
                44.74         13.02        2.0257    2   0   1         4
                45.71          5.61        1.9850    0   0   4         2
                45.98         21.27        1.9738    1   1   3         4
                48.59          5.98        1.8738    1   2   0         4
                48.59          5.98        1.8738    2   1   0         4
                49.17          8.47        1.8528    2   0   2         4
                50.01          5.84        1.8237    1   2   1         4
                50.01          5.84        1.8237    2   1   1         4
                50.90          7.20        1.7939    1   0   4         4
                54.12          1.83        1.6946    1   2   2         4
                54.12          1.83        1.6946    2   1   2         4
                55.74         11.57        1.6491    1   1   4         4
                55.98         11.14        1.6427    2   0   3         4
                60.54          6.12        1.5293    1   2   3         4
                60.54          6.12        1.5293    2   1   3         4
                62.55          1.50        1.4849    1   0   5         4
                62.72          4.93        1.4814    2   2   0         4
                63.93          4.13        1.4563    2   2   1         4
                64.69          6.94        1.4409    2   0   4         4
                66.84          2.20        1.3996    1   1   5         4
                67.00          2.08        1.3967    3   0   0         4
                67.48          2.97        1.3879    2   2   2         4
                68.17          2.13        1.3755    3   0   1         4
                68.91          2.69        1.3626    1   2   4         4
                68.91          2.69        1.3626    2   1   4         4
                71.16          3.20        1.3250    3   1   0         4
                71.16          3.20        1.3250    1   3   0         4
                71.26          1.07        1.3233    0   0   6         2
                72.30          2.76        1.3069    1   3   1         4
                72.30          2.76        1.3069    3   1   1         4
                73.22          4.53        1.2927    2   2   3         4
                75.06          1.52        1.2655    2   0   5         4
                75.31          1.60        1.2619    1   0   6         4
                75.67          2.05        1.2568    3   1   2         4
                75.67          2.05        1.2568    1   3   2         4
                77.23          2.73        1.2352    3   0   3         4
                79.29          3.04        1.2083    1   1   6         4
                80.98          3.35        1.1872    2   2   4         4
                81.18          3.31        1.1848    1   3   3         4
                81.18          3.31        1.1848    3   1   3         4
                83.12          1.06        1.1621    2   3   0         4
                83.12          1.06        1.1621    3   2   0         4
                84.20          1.11        1.1498    3   2   1         4
                84.20          1.11        1.1498    2   3   1         4
                84.89          1.43        1.1423    3   0   4         4
                87.11          2.34        1.1188    2   0   6         4
                88.78          2.63        1.1020    3   1   4         4
                88.78          2.63        1.1020    1   3   4         4
                89.52          2.01        1.0949    1   0   7         4
================================================================================
       XPOW Copyright 1993 Bob Downs, Ranjini Swaminathan and Kurt Bartelmehs
  For reference, see Downs et al. (1993) American Mineralogist 78, 1104-1107.
