      Mg O4 W
      Broch E
      Skrifter utgitt av det Norske Videnskaps-Akademi i Oslo 1 (1929) 1-618
      Untersuchungen ueber Kristallstrukturen des Wolframittypus und des Scheelittypus
      _cod_database_code 1010642
      _database_code_amcsd 0017524

      CELL PARAMETERS:   4.6800  5.6600  4.9200   90.000   89.670   90.000
      SPACE GROUP: P2/c      
      X-RAY WAVELENGTH:     1.541838
      Cell Volume:    130.323
      Density (g/cm3):      5.304
      MAX. ABS. INTENSITY / VOLUME**2:      113.3726193    
      RIR:      6.961
      RIR based on corundum from Acta Crystallographica A38 (1982) 733-739
               2-THETA      INTENSITY    D-SPACING   H   K   L   Multiplicity
                15.66         26.13        5.6600    0   1   0         2
                18.96        100.00        4.6799    1   0   0         2
                23.97         95.67        3.7132    0   1   1         4
                24.68         33.30        3.6067    1   1   0         4
                30.67         90.88        2.9150    1   1   1         4
                30.80         89.84        2.9027   -1   1   1         4
                31.62         21.68        2.8300    0   2   0         2
                36.53         34.03        2.4600    0   0   2         2
                36.63         38.60        2.4531    0   2   1         4
                37.13         16.06        2.4217    1   2   0         4
                38.47         29.35        2.3400    2   0   0         2
                39.96          5.09        2.2561    0   1   2         4
                41.37         13.54        2.1827    1   0   2         2
                41.51         15.14        2.1753    1   2   1         4
                41.57         13.34        2.1723   -1   0   2         2
                41.62         15.03        2.1702   -1   2   1         4
                41.77          4.48        2.1624    2   1   0         4
                44.49          6.60        2.0365    1   1   2         4
                44.68          6.52        2.0281   -1   1   2         4
                45.74         16.65        1.9836    2   1   1         4
                45.93         16.44        1.9758   -2   1   1         4
                48.24          7.81        1.8867    0   3   0         2
                49.07         12.06        1.8566    0   2   2         4
                50.62         10.93        1.8034    2   2   0         4
                51.91          1.15        1.7616    0   3   1         4
                52.28         21.19        1.7498    1   3   0         4
                52.98          5.52        1.7283    1   2   2         4
                53.15          5.46        1.7232   -1   2   2         4
                53.92         10.40        1.7003    2   0   2         2
                54.08         11.78        1.6956    2   2   1         4
                54.25         11.66        1.6908   -2   2   1         4
                54.26         10.19        1.6906   -2   0   2         2
                55.72          1.47        1.6498    1   3   1         4
                55.80          1.46        1.6475   -1   3   1         4
                56.51          1.75        1.6284    2   1   2         4
                56.84          1.72        1.6199   -2   1   2         4
                58.60          7.59        1.5752    0   1   3         4
                59.23          4.42        1.5600    3   0   0         2
                61.68          2.30        1.5039    3   1   0         4
                61.99          6.96        1.4971    0   3   2         4
                62.07         10.77        1.4954    1   1   3         4
                62.30         10.63        1.4904   -1   1   3         4
                63.32          6.49        1.4687    2   3   0         4
                63.87          5.06        1.4575    2   2   2         4
                64.17          4.98        1.4513   -2   2   2         4
                64.71          9.35        1.4404    3   1   1         4
                64.94          9.24        1.4360   -3   1   1         4
                65.38         10.06        1.4273    1   3   2         4
                65.53          9.98        1.4244   -1   3   2         4
                65.82          6.10        1.4189    0   2   3         4
                68.71          2.36        1.3662    3   2   0         4
                69.07          8.88        1.3599    0   4   1         4
                69.07          3.01        1.3598    1   2   3         4
                69.29          2.98        1.3560   -1   2   3         4
                71.42          2.39        1.3209    3   0   2         2
                71.59          2.68        1.3181    3   2   1         4
                71.80          2.66        1.3146   -3   2   1         4
                71.85          2.34        1.3140   -3   0   2         2
                72.10          3.85        1.3101    2   1   3         4
                72.33          4.51        1.3064    1   4   1         4
                72.40          4.50        1.3053   -1   4   1         4
                72.52          3.78        1.3034   -2   1   3         4
                73.64          1.27        1.2863    3   1   2         4
                74.07          1.24        1.2800   -3   1   2         4
                75.23          3.71        1.2631    2   3   2         4
                75.51          3.67        1.2591   -2   3   2         4
                77.62          3.10        1.2300    0   0   4         2
                78.69          3.40        1.2160    2   2   3         4
                79.11          3.34        1.2106   -2   2   3         4
                79.77          5.25        1.2022    3   3   0         4
                80.20          1.46        1.1969    3   2   2         4
                80.61          1.43        1.1918   -3   2   2         4
                80.65          1.65        1.1913    1   0   4         2
                80.93          1.63        1.1879   -1   0   4         2
                81.87          5.17        1.1766    2   4   1         4
                82.01          5.14        1.1749   -2   4   1         4
                82.43          2.59        1.1700    4   0   0         2
                85.85          1.00        1.1320    0   5   0         2
                86.22          1.96        1.1280    0   2   4         4
                87.26          2.22        1.1173    4   1   1         4
                87.53          2.20        1.1145   -4   1   1         4
                87.83          3.60        1.1115    3   1   3         4
                88.44          3.54        1.1054   -3   1   3         4
                88.96          2.98        1.1003    1   5   0         4
                89.20          1.10        1.0980    1   2   4         4
                89.47          1.09        1.0953   -1   2   4         4
                89.89          2.06        1.0913    2   0   4         2
================================================================================
       XPOW Copyright 1993 Bob Downs, Ranjini Swaminathan and Kurt Bartelmehs
  For reference, see Downs et al. (1993) American Mineralogist 78, 1104-1107.
