      AlOOH
      Suzuki A, Ohtani E, Kamada T
      Physics and Chemistry of Minerals 27 (2000) 689-693
      A new hydrous phase delta-AlOOH synthesized at 21 GPa and 1000 C
      _database_code_amcsd 0008490

      CELL PARAMETERS:   4.7134  4.2241  2.8325   90.000   90.000   90.000
      SPACE GROUP: P2_1nm    
      X-RAY WAVELENGTH:     1.541838
      Cell Volume:     56.395
      Density (g/cm3):      3.473
      MAX. ABS. INTENSITY / VOLUME**2:      13.27798635    
      RIR:      1.245
      RIR based on corundum from Acta Crystallographica A38 (1982) 733-739
               2-THETA      INTENSITY    D-SPACING   H   K   L   Multiplicity
                21.03          2.79        4.2241    0   1   0         2
                28.37        100.00        3.1457    1   1   0         2
                37.03          4.83        2.4278    1   0   1         2
                38.19          8.44        2.3567    2   0   0         1
                38.26         51.63        2.3526    0   1   1         4
                42.97         62.44        2.1049    1   1   1         4
                44.00         35.26        2.0581    2   1   0         2
                47.15          2.40        1.9274    1   2   0         2
                54.17          1.55        1.6932    0   2   1         4
                55.16         28.67        1.6650    2   1   1         4
                57.87         61.43        1.5935    1   2   1         4
                58.70         20.78        1.5729    2   2   0         2
                63.14         10.52        1.4726    3   1   0         2
                65.96         16.19        1.4163    0   0   2         2
                68.20          1.32        1.3751    2   2   1         4
                68.26         27.20        1.3739    3   0   1         2
                69.70          6.81        1.3491    1   3   0         2
                72.32          1.21        1.3066    3   1   1         4
                73.30         11.24        1.2914    1   1   2         4
                75.39          3.25        1.2608    0   3   1         4
                78.53          6.37        1.2180    1   3   1         4
                78.85          2.42        1.2139    2   0   2         2
                79.25          4.56        1.2087    2   3   0         2
                82.72          5.43        1.1667    2   1   2         4
                85.56          1.40        1.1350    4   1   0         2
                87.81          6.44        1.1117    2   3   1         4
================================================================================
       XPOW Copyright 1993 Bob Downs, Ranjini Swaminathan and Kurt Bartelmehs
  For reference, see Downs et al. (1993) American Mineralogist 78, 1104-1107.
