      Ag2 H O4 P
      Tordjman I, Boudjada A, Guitel J, Masse R
      Acta Crystallographica B34 (1978) 3723-3725
      Structure de l'Hydrogenophosphate D'Argent
      _cod_database_code 1008168
      _database_code_amcsd 0016108

      CELL PARAMETERS:   6.1900  6.1900  9.0150   90.000   90.000  120.000
      SPACE GROUP: P3_112    
      X-RAY WAVELENGTH:     1.541838
      Cell Volume:    299.142
      Density (g/cm3):      5.190
      MAX. ABS. INTENSITY / VOLUME**2:      110.7920689    
      RIR:      6.951
      RIR based on corundum from Acta Crystallographica A38 (1982) 733-739
               2-THETA      INTENSITY    D-SPACING   H   K   L   Multiplicity
                16.54         29.30        5.3607    1   0   0         3
                19.26          5.67        4.6076    1   0   1         6
                29.73         34.93        3.0050    0   0   3         2
                30.54          1.27        2.9273    2  -1   1         6
                30.54         98.73        2.9273    1   1   1         6
                33.43          3.82        2.6803    2   0   0         3
                34.21         18.66        2.6213    1   0   3         6
                34.92         15.00        2.5692    2   0   1         6
                35.17         48.42        2.5514    2  -1   2         6
                39.10         10.02        2.3038    2   0   2         6
                43.56          4.06        2.0776    1   0   4         6
                44.73          5.48        2.0262    2   1   0         6
                45.34          2.34        2.0003    2   0   3         6
                45.91          2.32        1.9768    3  -1   1         6
                45.91         12.22        1.9768    2   1   1         6
                49.31         11.12        1.8480    3  -1   2         6
                49.31          1.03        1.8480    2   1   2         6
                50.07         23.11        1.8219    1   1   4         6
                51.12         13.60        1.7869    3   0   0         3
                53.09          4.88        1.7250    2   0   4         6
                53.63          1.51        1.7089    1   0   5         6
                54.63          2.35        1.6800    3  -1   3         6
                59.32         10.20        1.5579    2  -1   5         6
                60.26         15.12        1.5359    3   0   3         6
                60.72          5.03        1.5252    4  -2   1         6
                61.55          4.22        1.5068    2   1   4         6
                61.55          1.31        1.5068    3  -1   4         6
                61.74          2.72        1.5025    0   0   6         2
                62.04          1.79        1.4960    2   0   5         6
                62.47          4.70        1.4868    3   1   0         6
                63.41          1.07        1.4670    4  -1   1         6
                63.41          1.78        1.4670    3   1   1         6
                63.57          4.41        1.4636    2   2   2         6
                64.40          2.00        1.4467    1   0   6         6
                66.18          1.25        1.4120    4  -1   2         6
                69.83          2.93        1.3469    3  -1   5         6
                70.23          2.00        1.3402    4   0   0         3
                70.69          1.90        1.3326    4  -1   3         6
                70.69          2.16        1.3326    3   1   3         6
                71.12          1.67        1.3256    4   0   1         6
                74.36          3.36        1.2757    4  -2   4         6
                76.80          1.86        1.2411    3   1   4         6
                76.80          1.06        1.2411    4  -1   4         6
                78.08          2.88        1.2240    4   0   3         6
                78.49          1.02        1.2185   -2  -3   1         6
                80.84          3.91        1.1890    1   1   7         6
                82.07          2.23        1.1743    2   2   5         6
                84.19          4.30        1.1500    3   0   6         6
                84.45          1.02        1.1471    4  -1   5         6
================================================================================
       XPOW Copyright 1993 Bob Downs, Ranjini Swaminathan and Kurt Bartelmehs
  For reference, see Downs et al. (1993) American Mineralogist 78, 1104-1107.
