      Cl H4 N O2
      Levi G, Scherillo A
      Zeitschrift fur Kristallographie 76 (1931) 431-452
      Ricerche cristallografiche sui sali dell acido cloroso
      _cod_database_code 1010621
      _database_code_amcsd 0017503

      CELL PARAMETERS:   6.3000  6.3000  6.3000   90.000   90.000   90.000
      SPACE GROUP: P4bm      
      X-RAY WAVELENGTH:     1.541838
      Cell Volume:    250.047
      Density (g/cm3):      0.657
      MAX. ABS. INTENSITY / VOLUME**2:      4.830445938    
      RIR:      2.395
      RIR based on corundum from Acta Crystallographica A38 (1982) 733-739
               2-THETA      INTENSITY    D-SPACING   H   K   L   Multiplicity
                14.06        100.00        6.3000    0   0   1         1
                19.93         25.55        4.4548    1   1   0         4
                24.47         97.09        3.6373    1   1   1         4
                28.33          4.91        3.1500    0   0   2         1
                28.33         53.41        3.1500    2   0   0         4
                31.76         44.35        2.8174    2   0   1         4
                34.88         54.88        2.5720    1   1   2         4
                40.50          6.56        2.2274    2   0   2         4
                40.50         16.37        2.2274    2   2   0         4
                43.07          3.95        2.1000    0   0   3         1
                43.07         15.80        2.1000    2   2   1         4
                45.53          4.47        1.9922    3   1   0         8
                47.89         10.76        1.8995    1   1   3         4
                47.89         21.51        1.8995    3   1   1         8
                50.16          3.24        1.8187    2   2   2         4
                52.36          7.73        1.7473    2   0   3         4
                54.50         21.74        1.6837    3   1   2         8
                58.61          2.06        1.5750    0   0   4         1
                58.61          4.12        1.5750    4   0   0         4
                60.60          4.49        1.5280    2   2   3         4
                60.60          4.49        1.5280    4   0   1         4
                62.55          1.55        1.4849    1   1   4         4
                64.47          7.15        1.4453    3   1   3         8
                64.47          3.58        1.4453    3   3   1         4
                66.36          1.28        1.4087    4   0   2         4
                66.36          5.16        1.4087    4   2   0         8
                66.36          5.16        1.4087    2   0   4         4
                68.22          5.84        1.3748    4   2   1         8
                70.05          4.24        1.3432    3   3   2         4
                73.67          3.56        1.2860    2   2   4         4
                73.67          1.84        1.2860    4   2   2         8
                75.45          2.07        1.2600    4   0   3         4
                77.21          1.60        1.2355    3   1   4         8
                78.97          1.79        1.2124    1   1   5         4
                78.97          3.58        1.2124    5   1   1         8
                78.97          1.79        1.2124    3   3   3         4
                82.44          1.58        1.1699    2   0   5         4
                82.44          3.15        1.1699    4   2   3         8
                84.17          4.68        1.1502    5   1   2         8
                87.61          1.05        1.1137    4   4   0         4
                87.61          2.11        1.1137    4   0   4         4
                89.33          1.28        1.0967    4   4   1         4
                89.33          1.28        1.0967    2   2   5         4
================================================================================
       XPOW Copyright 1993 Bob Downs, Ranjini Swaminathan and Kurt Bartelmehs
  For reference, see Downs et al. (1993) American Mineralogist 78, 1104-1107.
