      F2 H5 N
      Pauling L
      Zeitschrift fur Kristallographie 85 (1933) 380-391
      The crystal structure of ammonium hydrogen fluoride N H4 H F2
      _cod_database_code 1010616
      _database_code_amcsd 0017498

      CELL PARAMETERS:   8.3300  8.1400  3.6800   90.000   90.000   90.000
      SPACE GROUP: Pman      
      X-RAY WAVELENGTH:     1.541838
      Cell Volume:    249.527
      Density (g/cm3):      1.384
      MAX. ABS. INTENSITY / VOLUME**2:      2.678617440    
      RIR:      0.630
      RIR based on corundum from Acta Crystallographica A38 (1982) 733-739
               2-THETA      INTENSITY    D-SPACING   H   K   L   Multiplicity
                21.84          1.91        4.0700    0   2   0         2
                24.18         46.19        3.6800    0   0   1         2
                26.58          6.08        3.3532    0   1   1         4
                28.70          3.87        3.1107    1   1   1         8
                30.71          8.12        2.9109    2   2   0         4
                32.47         49.52        2.7578    2   0   1         4
                32.81        100.00        2.7296    0   2   1         4
                34.12         85.18        2.6280    3   1   0         4
                34.33         44.58        2.6119    2   1   1         8
                34.58         36.97        2.5939    1   2   1         8
                34.77         65.70        2.5799    1   3   0         4
                39.47         34.92        2.2830    2   2   1         8
                41.34          8.95        2.1839    0   3   1         4
                42.26         59.21        2.1386    3   1   1         8
                42.81         41.75        2.1125    1   3   1         8
                43.45          4.41        2.0825    4   0   0         2
                44.52          3.27        2.0350    0   4   0         2
                46.66         12.62        1.9466    3   2   1         8
                49.14         25.72        1.8539    4   2   0         4
                49.54          8.31        1.8400    0   0   2         2
                49.88         30.31        1.8284    2   4   0         4
                50.35          6.38        1.8124    4   0   1         4
                50.88         11.36        1.7947    0   1   2         4
                51.67          1.40        1.7691    4   1   1         8
                52.13          7.34        1.7545    1   1   2         8
                53.37          1.78        1.7166    3   3   1         8
                54.52          4.10        1.6831    2   0   2         4
                54.75          1.60        1.6766    0   2   2         4
                55.50          1.31        1.6557    4   2   1         8
                55.94         10.49        1.6437    1   2   2         8
                56.37          4.44        1.6322    5   1   0         4
                57.70          6.37        1.5978    1   5   0         4
                61.52          4.65        1.5073    3   1   2         8
                61.53          3.53        1.5071    4   3   1         8
                61.94          1.92        1.4980    1   3   2         8
                62.22          3.27        1.4920    5   1   1         8
                62.37          2.60        1.4888    0   5   1         4
                63.47          5.97        1.4656    1   5   1         8
                63.97          4.43        1.4555    4   4   0         4
                64.98          5.45        1.4353    3   2   2         8
                65.23          6.26        1.4303    2   3   2         8
                65.66          2.98        1.4221    5   2   1         8
                68.78          5.71        1.3648    0   4   2         4
                69.09          6.14        1.3595    4   1   2         8
                69.44         20.12        1.3535    4   4   1         8
                70.53          3.83        1.3352    3   3   2         8
                71.85          2.58        1.3140    6   2   0         4
                71.97          1.03        1.3121    3   5   1         8
                72.36          6.84        1.3060    4   2   2         8
                72.81          6.12        1.2990    6   0   1         4
                72.94          1.18        1.2970    2   4   2         8
                73.88          2.08        1.2827    6   1   1         8
                74.55          5.06        1.2729    0   6   1         4
                75.56          1.51        1.2583    1   6   1         8
                78.59          1.19        1.2173    2   6   1         8
                79.07          1.90        1.2111    4   5   1         8
                79.92          3.20        1.2003    1   1   3         8
                81.44          2.06        1.1818    5   2   2         8
                82.05          1.94        1.1745    0   2   3         4
                82.42          3.56        1.1702    2   5   2         8
                82.90          2.24        1.1646    2   1   3         8
                84.47          1.13        1.1469    6   4   0         4
                85.40          1.66        1.1367    4   6   0         4
                87.35          1.49        1.1164    3   5   2         8
================================================================================
       XPOW Copyright 1993 Bob Downs, Ranjini Swaminathan and Kurt Bartelmehs
  For reference, see Downs et al. (1993) American Mineralogist 78, 1104-1107.
