      Stromeyerite
      Baker C L, Lincoln F J, Johnson A W S
      Acta Crystallographica B47 (1991) 891-899
      A low-temperature structural phase transformation in CuAgS
      Locality: Gowganda, Ontario, Canada
      Sample: T = 120 K
      Note: dimorphic with stromeyerite
      _database_code_amcsd 0009856

      CELL PARAMETERS:   4.0470  6.5920  7.9300   90.000   90.000   90.000
      SPACE GROUP: Pmc2_1    
      X-RAY WAVELENGTH:     1.541838
      Cell Volume:    211.555
      Density (g/cm3):      6.388
      MAX. ABS. INTENSITY / VOLUME**2:      158.9712162    
      RIR:      8.104
      RIR based on corundum from Acta Crystallographica A38 (1982) 733-739
               2-THETA      INTENSITY    D-SPACING   H   K   L   Multiplicity
                17.49         15.18        5.0692    0   1   1         2
                25.83         10.21        3.4489    1   1   0         4
                27.05         18.77        3.2960    0   2   0         2
                29.35         11.29        3.0436    0   2   1         2
                31.59          2.68        2.8322    1   0   2         2
                34.47        100.00        2.6022    1   1   2         4
                35.41          7.56        2.5346    0   2   2         2
                36.63          3.51        2.4534    0   1   3         2
                36.95         15.66        2.4325    1   2   1         4
                42.70         11.01        2.1175    0   3   1         2
                43.91          6.64        2.0621    0   2   3         2
                44.79         20.15        2.0235    2   0   0         2
                45.77         16.87        1.9825    0   0   4         1
                47.92          1.21        1.8985    0   1   4         2
                48.44          1.80        1.8793    2   1   1         4
                48.52         13.86        1.8762    1   3   1         4
                49.62          8.43        1.8373    1   2   3         4
                52.73          8.43        1.7361    1   3   2         4
                53.11          4.93        1.7245    2   2   0         4
                53.30          1.49        1.7188    1   1   4         4
                53.97          4.48        1.6989    0   2   4         2
                54.29          2.73        1.6897    0   3   3         2
                54.45          3.34        1.6851    2   2   1         4
                58.35          2.73        1.5814    2   2   2         4
                59.19          1.39        1.5611    2   1   3         4
                59.26          3.01        1.5593    1   3   3         4
                61.91          6.71        1.4988    1   4   1         4
                63.60          5.43        1.4629    2   3   1         4
                64.52          3.52        1.4443    2   2   3         4
                65.97          9.35        1.4161    2   0   4         2
                66.91          1.16        1.3985    0   4   3         2
                71.36          3.68        1.3218    1   4   3         4
                72.67          2.96        1.3011    2   2   4         4
                72.71          1.78        1.3005    0   5   1         2
                72.94          1.82        1.2970    2   3   3         4
                73.66          2.07        1.2860    0   3   5         2
                75.70          1.20        1.2564    1   0   6         2
                75.88          6.85        1.2538    3   1   2         4
                77.31          5.52        1.2342    1   1   6         4
                77.38          1.20        1.2333    3   2   1         4
                77.95          4.21        1.2256    1   3   5         4
                80.33          1.97        1.1952    1   5   2         4
                81.60          1.08        1.1798    0   5   3         2
                84.15          1.02        1.1505    2   4   3         4
                85.31          2.06        1.1377    3   3   1         4
                86.14          1.22        1.1289    3   2   3         4
                88.56          1.47        1.1042    3   3   2         4
                89.01          1.67        1.0998    1   4   5         4
                89.60          1.82        1.0941    2   5   1         4
                89.96          1.09        1.0907    1   3   6         4
================================================================================
       XPOW Copyright 1993 Bob Downs, Ranjini Swaminathan and Kurt Bartelmehs
  For reference, see Downs et al. (1993) American Mineralogist 78, 1104-1107.
