      SbTaO4
      Jeitschko W, Sleight A W
      Acta Crystallographica B30 (1974) 2088-2094
      Alpha stannous tungstate: Properties, crystal structure and relationship to
      ferroelectric SbTaO4 type compounds
      _database_code_amcsd 0009511

      CELL PARAMETERS:   5.6270 11.6486  4.9973   90.000   90.000   90.000
      SPACE GROUP: Pnna      
      X-RAY WAVELENGTH:     1.541838
      Cell Volume:    327.556
      Density (g/cm3):      7.432
      MAX. ABS. INTENSITY / VOLUME**2:      336.8784799    
      RIR:     14.760
      RIR based on corundum from Acta Crystallographica A38 (1982) 733-739
               2-THETA      INTENSITY    D-SPACING   H   K   L   Multiplicity
                15.21         10.04        5.8243    0   2   0         2
                19.33          2.13        4.5925    0   1   1         4
                23.81          3.21        3.7365    1   0   1         4
                25.03         18.86        3.5579    1   1   1         8
                28.38        100.00        3.1450    1   2   1         8
                30.70         22.08        2.9121    0   4   0         2
                31.81         10.13        2.8135    2   0   0         2
                32.75          9.87        2.7349    2   1   0         4
                33.28          5.10        2.6924    1   3   1         8
                35.94         11.39        2.4987    0   0   2         2
                39.56          3.46        2.2783    2   3   0         4
                44.79          9.02        2.0234    2   4   0         4
                45.90          2.91        1.9769    1   5   1         8
                47.98         13.04        1.8963    0   4   2         4
                48.74          6.16        1.8683    2   0   2         4
                49.41          9.55        1.8447    2   1   2         8
                50.89          3.19        1.7944    2   5   0         4
                52.08          1.83        1.7560    3   0   1         4
                52.71          8.50        1.7364    3   1   1         8
                53.17         17.88        1.7228    1   6   1         8
                54.51          7.11        1.6835    2   3   2         8
                54.58          2.90        1.6813    3   2   1         8
                57.61          5.91        1.6000    3   3   1         8
                58.31          1.13        1.5824    1   1   3         8
                58.72          6.50        1.5725    2   4   2         8
                60.06         10.48        1.5404    1   2   3         8
                60.95          1.65        1.5201    1   7   1         8
                61.68          1.21        1.5038    3   4   1         8
                62.92          1.64        1.4772    1   3   3         8
                63.87          3.43        1.4575    2   5   2         8
                63.94          2.71        1.4561    0   8   0         2
                65.13          2.36        1.4323    2   7   0         4
                66.70          3.95        1.4023    3   5   1         8
                67.01          1.39        1.3966    4   1   0         4
                68.63          2.29        1.3674    4   2   0         4
                71.31          1.45        1.3226    4   3   0         4
                73.19          1.70        1.2932    2   8   0         4
                75.58          3.48        1.2580    0   8   2         4
                76.20          1.35        1.2493    0   0   4         2
                76.69          1.57        1.2426    2   7   2         8
                77.00          2.51        1.2384    3   1   3         8
                77.37          4.31        1.2335    1   6   3         8
                78.45          1.95        1.2191    4   1   2         8
                79.32          2.53        1.2079    3   7   1         8
                79.98          1.95        1.1995    4   2   2         8
                81.09          2.44        1.1860    3   3   3         8
                82.52          1.62        1.1690    4   3   2         8
                84.33          2.16        1.1485    2   8   2         8
                84.36          2.36        1.1481    0   4   4         4
                85.18          1.14        1.1391    4   6   0         4
                85.44          1.00        1.1364    2   1   4         8
                87.77          3.52        1.1121    1  10   1         8
                89.15          1.85        1.0984    3   5   3         8
                89.20          1.76        1.0979    5   0   1         4
                89.46          1.41        1.0954    2   3   4         8
================================================================================
       XPOW Copyright 1993 Bob Downs, Ranjini Swaminathan and Kurt Bartelmehs
  For reference, see Downs et al. (1993) American Mineralogist 78, 1104-1107.
