      H12 Mg O9 S
      Flack H
      Acta Crystallographica B29 (1973) 656-658
      Etude de la structure cristalline du sulfite de magnesium hexahydrate,
      Mg S O3 (H2 O)6
      _cod_database_code 1100103
      _database_code_amcsd 0018267

      CELL PARAMETERS:   8.8300  8.8300  9.0750   90.000   90.000  120.000
      SPACE GROUP: R3        
      X-RAY WAVELENGTH:     1.541838
      Cell Volume:    612.772
      Density (g/cm3):      1.629
      MAX. ABS. INTENSITY / VOLUME**2:      7.061615226    
      RIR:      1.412
      RIR based on corundum from Acta Crystallographica A38 (1982) 733-739
               2-THETA      INTENSITY    D-SPACING   H   K   L   Multiplicity
                15.15         11.65        5.8477    1   0   1         3
                20.11        100.00        4.4150    1   1   0         3
                22.79         96.55        3.9022    0   1   2         3
                25.28          4.06        3.5235    0   2   1         3
                29.53         28.05        3.0250    0   0   3         1
                30.58         30.57        2.9239    2   0   2         3
                32.51          3.82        2.7540    2   1   1         3
                32.51         51.20        2.7540    3  -1   1         3
                35.21          5.17        2.5490    3   0   0         3
                35.99          3.30        2.4954    1   1   3         3
                35.99          6.97        2.4954    2  -1   3         3
                36.87         36.78        2.4378    1   2   2         3
                40.88          2.43        2.2075    2   2   0         3
                41.52          4.70        2.1750    1   0   4         3
                43.84          8.15        2.0652    1   3   1         3
                43.84          1.81        2.0652   -1   4   1         3
                46.55          6.20        1.9511    0   2   4         3
                46.59          1.32        1.9492    3   0   3         3
                46.59          3.71        1.9492    0   3   3         3
                47.31         15.09        1.9214    3   1   2         3
                47.31          3.18        1.9214    4  -1   2         3
                48.67          2.15        1.8707    4   0   1         3
                51.19         23.41        1.7846    3  -1   4         3
                51.19          8.68        1.7846    2   1   4         3
                51.23          2.36        1.7832    4  -2   3         3
                51.23         11.59        1.7832    2   2   3         3
                51.90          1.20        1.7618    0   4   2         3
                53.18          1.89        1.7225    5  -2   1         3
                55.03          6.44        1.6687    1   4   0         3
                55.03         12.73        1.6687    4   1   0         3
                56.22          1.67        1.6363    2   3   2         3
                56.22          3.00        1.6363   -2   5   2         3
                59.68          1.53        1.5493    1   3   4         3
                59.68          3.78        1.5493   -1   4   4         3
                60.21          1.04        1.5371    1   2   5         3
                60.21          1.67        1.5371   -1   3   5         3
                61.48          1.92        1.5081    0   5   1         3
                63.65          1.69        1.4619    4   0   4         3
                63.69          2.12        1.4611    5  -1   3         3
                63.69          1.27        1.4611    4   1   3         3
                64.27          2.13        1.4493    5   0   2         3
                65.20          3.75        1.4309    2  -1   6         3
                67.49          1.58        1.3878    3   2   4         3
                67.49          5.51        1.3878    5  -2   4         3
                68.09          1.13        1.3770    4   2   2         3
                68.09          3.81        1.3770    6  -2   2         3
                71.81          1.89        1.3145   -1   6   2         3
                72.69          1.14        1.3007    0   3   6         3
                72.69          2.38        1.3007    3   0   6         3
                74.19          1.15        1.2782    1   0   7         3
                74.44          4.71        1.2745    6   0   0         3
                76.32          4.84        1.2477    4  -2   6         3
                76.50          2.31        1.2453    4   3   1         3
                78.04          2.43        1.2245    5   2   0         3
                78.47          1.37        1.2189    2   4   4         3
                79.04          4.35        1.2115   -3   7   2         3
                81.34          1.03        1.1829    2   1   7         3
                86.09          1.81        1.1295    6   1   2         3
                86.79          1.17        1.1221    0   1   8         3
                86.93          1.68        1.1207    5  -1   6         3
                89.03          1.64        1.0996    4   3   4         3
================================================================================
       XPOW Copyright 1993 Bob Downs, Ranjini Swaminathan and Kurt Bartelmehs
  For reference, see Downs et al. (1993) American Mineralogist 78, 1104-1107.
