      Millerite
      Grice J D, Ferguson R B
      The Canadian Mineralogist 12 (1974) 248-252
      Crystal structure refinement of millerite (B-NiS)
      _database_code_amcsd 0005097

      CELL PARAMETERS:   9.6071  9.6071  3.1434   90.000   90.000  120.000
      SPACE GROUP: R3m       
      X-RAY WAVELENGTH:     1.541838
      Cell Volume:    251.255
      Density (g/cm3):      5.398
      MAX. ABS. INTENSITY / VOLUME**2:      33.70941203    
      RIR:      2.034
      RIR based on corundum from Acta Crystallographica A38 (1982) 733-739
               2-THETA      INTENSITY    D-SPACING   H   K   L   Multiplicity
                18.47         75.18        4.8035    1   1   0         6
                30.40         55.53        2.9405    1   0   1         3
                32.28        100.00        2.7733    3   0   0         3
                35.80         57.67        2.5079    0   2   1         3
                37.44         12.10        2.4018    2   2   0         6
                40.58         46.15        2.2232    2   1   1         6
                48.97         80.24        1.8601    1   3   1         6
                50.25         34.69        1.8156    4   1   0         6
                52.77         34.46        1.7346    4   0   1         3
                56.40         10.43        1.6315    3   2   1         6
                57.56         18.30        1.6012    3   3   0         6
                59.89         15.99        1.5444    0   1   2         3
                63.23          1.53        1.4707    0   5   1         3
                66.51          2.13        1.4059    1   2   2         6
                67.55          3.13        1.3867    6   0   0         3
                70.71          1.98        1.3323    5   2   0         6
                72.81          6.14        1.2990    3   1   2         6
                75.86          3.90        1.2542    4   3   1         6
                75.87          3.65        1.2540    0   4   2         3
                78.90          1.09        1.2133    2   3   2         6
                79.88          1.09        1.2009    4   4   0         6
                81.87          2.36        1.1766    1   6   1         6
                84.86          2.04        1.1426    5   0   2         3
                87.80          2.63        1.1118    7   0   1         3
                87.82          1.45        1.1116    4   2   2         6
================================================================================
       XPOW Copyright 1993 Bob Downs, Ranjini Swaminathan and Kurt Bartelmehs
  For reference, see Downs et al. (1993) American Mineralogist 78, 1104-1107.
